TITLE	alac ph7 far
DATA TYPE	
ORIGIN	JASCO
OWNER	
DATE	19/11/22
TIME	15:42:41
SPECTROMETER/DATA SYSTEM	
LOCALE	1033
RESOLUTION	
DELTAX	-1
XUNITS	NANOMETERS
YUNITS	CD [mdeg]
Y2UNITS	HT [V]
FIRSTX	  250.0000
LASTX	  190.0000
NPOINTS	      61
FIRSTY	     0.20941
MAXY	    22.22735
MINY	    -9.09827
XYDATA
250.0000	0.209412	371.299
249.0000	0.135497	372.625
248.0000	0.132529	373.971
247.0000	0.00617828	375.338
246.0000	-0.0579098	376.696
245.0000	-0.129511	378.066
244.0000	-0.210594	379.468
243.0000	-0.385677	380.945
242.0000	-0.418872	382.53
241.0000	-0.577047	384.21
240.0000	-0.770439	386.021
239.0000	-1.00876	387.99
238.0000	-1.32714	390.142
237.0000	-1.69302	392.479
236.0000	-2.12571	394.996
235.0000	-2.80965	397.697
234.0000	-3.46896	400.581
233.0000	-4.16951	403.678
232.0000	-4.83294	406.975
231.0000	-5.60724	410.363
230.0000	-6.32144	413.881
229.0000	-6.8793	417.427
228.0000	-7.27108	420.966
227.0000	-7.62217	424.448
226.0000	-7.73518	427.79
225.0000	-7.9242	431.027
224.0000	-7.78672	434.142
223.0000	-7.85917	437.148
222.0000	-7.86291	440.09
221.0000	-7.86708	442.944
220.0000	-8.05002	445.774
219.0000	-7.99516	448.579
218.0000	-7.80772	451.406
217.0000	-7.56276	454.261
216.0000	-7.72845	457.146
215.0000	-8.04882	460.159
214.0000	-7.99631	463.374
213.0000	-7.98932	466.822
212.0000	-8.38993	470.638
211.0000	-8.92948	474.827
210.0000	-9.09827	479.5
209.0000	-8.77673	484.627
208.0000	-8.30031	490.251
207.0000	-8.01935	496.408
206.0000	-7.544	503.048
205.0000	-6.85886	510.223
204.0000	-6.14529	518.047
203.0000	-5.29261	526.471
202.0000	-3.66147	535.828
201.0000	-1.37725	546.01
200.0000	0.349523	557.101
199.0000	2.35091	569.237
198.0000	4.93472	582.639
197.0000	7.45818	597.505
196.0000	9.29048	614.124
195.0000	10.3583	633.057
194.0000	11.4367	654.613
193.0000	13.108	680.125
192.0000	15.4006	710.317
191.0000	21.9752	745.286
190.0000	22.2273	785.318
##### Extended Information
[Comments]
Sample name	alac ph7 far
Comment
User
Division
Company	Lund
[Detailed Information]
Creation date	11/22/2019 4:42 PM
Data array type	Linear data array * 2
Horizontal axis	Wavelength [nm]
Vertical axis(1)	CD [mdeg]
Vertical axis(2)	HT [V]
Start	250 nm
End	190 nm
Data interval	1 nm
Data points	61      
[Measurement Information]
Instrument name	J-815
Model name	J-815
Serial No.	A030461168
Accessory	PTC-423S
Accessory S/N	A015961181
  Temperature	20.02 C
  Control sonsor	Holder
  Monitor sensor	Holder
  Start Mode	Start immediately
  Cell length	10 mm
Measurement date	11/22/2019 4:42 PM
Photometric mode	CD, HT
Measure range	250 - 190 nm
Data pitch	1 nm
Sensitivity	Standard
D.I.T.	8 sec
Bandwidth	1.00 nm
Start mode	Immediately
Scanning speed	50 nm/min
Baseline correction	None
Shutter control	Manual
CD detector	PMT
PMT voltage	Auto
Accumulations   2
