TITLE	a-lacpH7
DATA TYPE	
ORIGIN	JASCO
OWNER	
DATE	19/11/21
TIME	16:29:10
SPECTROMETER/DATA SYSTEM	
LOCALE	1033
RESOLUTION	
DELTAX	-1
XUNITS	NANOMETERS
YUNITS	CD [mdeg]
Y2UNITS	HT [V]
FIRSTX	  250.0000
LASTX	  190.0000
NPOINTS	      61
FIRSTY	     0.42635
MAXY	    17.15624
MINY	    -8.60557
XYDATA
250.0000	0.426353	372.012
249.0000	0.427327	373.346
248.0000	0.346002	374.696
247.0000	0.206598	376.064
246.0000	0.140901	377.428
245.0000	0.0840673	378.808
244.0000	0.0402037	380.224
243.0000	-0.131576	381.701
242.0000	-0.296453	383.291
241.0000	-0.438651	384.983
240.0000	-0.616284	386.814
239.0000	-0.866408	388.802
238.0000	-1.25517	390.979
237.0000	-1.60498	393.341
236.0000	-1.94527	395.887
235.0000	-2.39153	398.611
234.0000	-3.13469	401.52
233.0000	-3.90228	404.63
232.0000	-4.52076	407.93
231.0000	-5.23377	411.33
230.0000	-5.97771	414.861
229.0000	-6.57876	418.426
228.0000	-7.00951	421.997
227.0000	-7.18506	425.502
226.0000	-7.43658	428.871
225.0000	-7.55095	432.132
224.0000	-7.51158	435.269
223.0000	-7.56554	438.282
222.0000	-7.5405	441.24
221.0000	-7.59657	444.108
220.0000	-7.66005	446.957
219.0000	-7.63157	449.795
218.0000	-7.65031	452.663
217.0000	-7.72723	455.565
216.0000	-7.80996	458.504
215.0000	-7.86636	461.567
214.0000	-7.80107	464.842
213.0000	-7.80907	468.373
212.0000	-7.88301	472.252
211.0000	-8.26641	476.506
210.0000	-8.60557	481.258
209.0000	-8.58318	486.483
208.0000	-8.36269	492.23
207.0000	-8.35547	498.498
206.0000	-8.05789	505.256
205.0000	-7.51546	512.571
204.0000	-6.40213	520.548
203.0000	-5.11225	529.145
202.0000	-3.83281	538.636
201.0000	-1.98069	548.959
200.0000	-0.0748365	560.188
199.0000	2.41794	572.412
198.0000	4.87723	585.869
197.0000	6.95571	600.732
196.0000	9.3324	617.29
195.0000	11.3684	636.051
194.0000	13.1809	657.367
193.0000	14.1302	682.648
192.0000	16.3666	712.818
191.0000	17.1562	748.477
190.0000	16.6458	790.635
##### Extended Information
[Comments]
Sample name	a-lacpH7
Comment
User
Division
Company	Lund
[Detailed Information]
Creation date	11/21/2019 5:29 PM
Data array type	Linear data array * 2
Horizontal axis	Wavelength [nm]
Vertical axis(1)	CD [mdeg]
Vertical axis(2)	HT [V]
Start	250 nm
End	190 nm
Data interval	1 nm
Data points	61      
[Measurement Information]
Instrument name	J-815
Model name	J-815
Serial No.	A030461168
Accessory	PTC-423S
Accessory S/N	A015961181
  Temperature	20.02 C
  Control sonsor	Holder
  Monitor sensor	Holder
  Start Mode	Start immediately
  Cell length	10 mm
Measurement date	11/21/2019 5:29 PM
Photometric mode	CD, HT
Measure range	250 - 190 nm
Data pitch	1 nm
Sensitivity	Standard
D.I.T.	8 sec
Bandwidth	1.00 nm
Start mode	Immediately
Scanning speed	50 nm/min
Baseline correction	None
Shutter control	Manual
CD detector	PMT
PMT voltage	Auto
Accumulations	2
